Range    : 1.000
Accuracy : 0.001
Control file  : C2HD3gr   
Spectrum file : s         

 Searching   2  2  0 near    774.28833
 No   1:   1  1  0        3.63042  reg   769.658 -   771.658
 No   2:   3  3  0       27.70560  reg   745.583 -   747.583
  1  1  0   769.69769 10.0   773.32811    3  3  0   745.62219 78.5   773.32779
  1  1  0   769.74724 75.4   773.37766    3  3  0   745.67260 79.0   773.37820
  1  1  0   769.75312 53.8   773.38354    3  3  0   745.67784 31.5   773.38344
  1  1  0   769.77232 77.1   773.40274    3  3  0   745.69670 73.3   773.40230
  1  1  0   769.77843 85.7   773.40885    3  3  0   745.70284 64.8   773.40844
  1  1  0   769.83647 54.2   773.46689    3  3  0   745.76157 88.3   773.46717
  1  1  0   769.87499 87.6   773.50541    3  3  0   745.80048 59.5   773.50608
  1  1  0   769.89959 11.8   773.53001    3  3  0   745.82403 50.0   773.52963
  1  1  0   770.09046 88.6   773.72088    3  3  0   746.01481 80.2   773.72041
  1  1  0   770.10833 79.4   773.73875    3  3  0   746.03277 46.2   773.73837
  1  1  0   770.27781 73.7   773.90823    3  3  0   746.20261 87.1   773.90821
  1  1  0   770.28231 25.1   773.91273    3  3  0   746.20758 85.4   773.91318
  1  1  0   770.36301 80.8   773.99343    3  3  0   746.28765 46.8   773.99325
  1  1  0   770.41207 66.2   774.04249    3  3  0   746.33744 79.6   774.04304
  1  1  0   770.42978 86.7   774.06020    3  3  0   746.35458 80.6   774.06018
  1  1  0   770.45985 87.1   774.09027    3  3  0   746.38454 36.5   774.09014
  1  1  0   770.47540 69.4   774.10582    3  3  0   746.40105 65.2   774.10665
  1  1  0   770.51413 43.3   774.14455    3  3  0   746.43916 78.2   774.14476
  1  1  0   770.52884 78.4   774.15926    3  3  0   746.45328 86.9   774.15888
  1  1  0   770.65508 76.3   774.28550    3  3  0   746.57924 67.5   774.28484
  1  1  0   770.69409 75.0   774.32451    3  3  0   746.61802 88.4   774.32362
  1  1  0   770.71463 82.0   774.34505    3  3  0   746.63956 35.9   774.34516
  1  1  0   770.72114 73.7   774.35156    3  3  0   746.64520 79.3   774.35080
  1  1  0   770.74080 51.7   774.37122    3  3  0   746.66521 38.4   774.37081
  1  1  0   770.74683 84.7   774.37725    3  3  0   746.67167 22.7   774.37727
  1  1  0   770.79628 20.5   774.42670    3  3  0   746.72054 72.5   774.42614
  1  1  0   770.89850 69.9   774.52892    3  3  0   746.82292 74.1   774.52852
  1  1  0   770.99291 61.7   774.62333    3  3  0   746.91728 76.0   774.62288
  1  1  0   771.09562 63.9   774.72604    3  3  0   747.02025 89.7   774.72585
  1  1  0   771.11124 84.5   774.74166    3  3  0   747.03563 42.0   774.74123
  1  1  0   771.11505 83.1   774.74547    3  3  0   747.04062 63.2   774.74622
  1  1  0   771.15908 88.5   774.78950    3  3  0   747.08429 88.7   774.78989
  1  1  0   771.24732 89.7   774.87774    3  3  0   747.17125 62.6   774.87685
  1  1  0   771.33185 34.0   774.96227    3  3  0   747.25574 48.6   774.96134
  1  1  0   771.33700 63.5   774.96742    3  3  0   747.26160 61.9   774.96720
  1  1  0   771.34777 85.1   774.97819    3  3  0   747.27232 52.9   774.97792
  1  1  0   771.38000 77.9   775.01042    3  3  0   747.30515 49.4   775.01075
  1  1  0   771.47793 51.2   775.10835    3  3  0   747.40222 84.5   775.10782
  1  1  0   771.48809 89.4   775.11851    3  3  0   747.41323 37.8   775.11883
  1  1  0   771.49306 75.8   775.12348    3  3  0   747.41872 83.0   775.12432
  1  1  0   771.49749 78.0   775.12791    3  3  0   747.42324 47.0   775.12884
  1  1  0   771.50627 85.8   775.13669    3  3  0   747.43190 88.2   775.13750
  1  1  0   771.52142 85.7   775.15184    3  3  0   747.44672 78.6   775.15232
  1  1  0   771.64441 68.1   775.27483    3  3  0   747.56887 85.2   775.27447
  1  1  0   771.65043 88.5   775.28085    3  3  0   747.57557 68.4   775.28117
  1  1  0   771.65549 79.0   775.28591    3  3  0   747.58028 74.4   775.28588

 Searching   3  2  1 near    778.52892
 No   1:   2  1  1        6.60191  reg   770.927 -   772.927
 No   2:   3  3  1       27.70521  reg   749.824 -   751.824
 No   3:   4  3  1       33.32670  reg   744.202 -   746.202
  2  1  1   770.95378 87.5   777.55569    3  3  1   749.84977 79.9   777.55498
  2  1  1   770.95984 81.3   777.56175    3  3  1   749.85557 87.1   777.56078
  2  1  1   770.97590 81.6   777.57781    3  3  1   749.87251 84.6   777.57772
  2  1  1   770.99291 61.7   777.59482    4  3  1   744.26858 69.8   777.59528
  2  1  1   771.01697 55.2   777.61888    3  3  1   749.91297 88.1   777.61818
  2  1  1   771.02392 57.1   777.62583    3  3  1   749.92092 49.6   777.62613
  2  1  1   771.03410 83.2   777.63601    3  3  1   749.93036 83.5   777.63557
                                          4  3  1   744.30885 38.1   777.63555
  2  1  1   771.04910 86.9   777.65101    4  3  1   744.32448 32.5   777.65118
  2  1  1   771.07856 81.8   777.68047    3  3  1   749.97435 85.8   777.67956
  2  1  1   771.10045 82.3   777.70236    3  3  1   749.99761 24.0   777.70282
  2  1  1   771.11505 83.1   777.71696    3  3  1   750.01225 41.3   777.71746
  2  1  1   771.13458 20.2   777.73649    3  3  1   750.03127 43.8   777.73648
  2  1  1   771.14845 73.8   777.75036    3  3  1   750.04615 71.9   777.75136
  2  1  1   771.15370 65.4   777.75561    3  3  1   750.05024 87.7   777.75545
  2  1  1   771.15908 88.5   777.76099    3  3  1   750.05539 88.9   777.76060
  2  1  1   771.16351 83.2   777.76542    3  3  1   750.05955 71.0   777.76476
  2  1  1   771.18589 63.6   777.78780    3  3  1   750.08287 78.9   777.78808
  2  1  1   771.22407 77.3   777.82598    3  3  1   750.12015 87.0   777.82536
  2  1  1   771.24732 89.7   777.84923    3  3  1   750.14374 62.1   777.84895
  2  1  1   771.25667 85.3   777.85858    4  3  1   744.53126 20.0   777.85796
  2  1  1   771.27924 79.4   777.88115    3  3  1   750.17540 83.7   777.88061
                                          4  3  1   744.55391 69.0   777.88061
  2  1  1   771.28486 84.2   777.88677    3  3  1   750.18088 74.3   777.88609
  2  1  1   771.31366 13.7   777.91557    4  3  1   744.58969 23.4   777.91639
  2  1  1   771.34777 85.1   777.94968    3  3  1   750.24384 53.8   777.94905
  2  1  1   771.40252 88.9   778.00443    4  3  1   744.67816 16.6   778.00486
  2  1  1   771.43167 61.6   778.03358    3  3  1   750.32763 68.4   778.03284
  2  1  1   771.43638 76.4   778.03829    3  3  1   750.33363 73.5   778.03884
  2  1  1   771.44129 69.5   778.04320    3  3  1   750.33763 84.3   778.04284
  2  1  1   771.44676 88.6   778.04867    3  3  1   750.34366 82.0   778.04887
  2  1  1   771.48809 89.4   778.09000    3  3  1   750.38451 54.9   778.08972
  2  1  1   771.49306 75.8   778.09497    3  3  1   750.38986 27.8   778.09507
  2  1  1   771.50627 85.8   778.10818    4  3  1   744.78053 62.7   778.10723
  2  1  1   771.52142 85.7   778.12333    3  3  1   750.41731 53.0   778.12252
                                          4  3  1   744.79601 82.1   778.12271
  2  1  1   771.54156 12.0   778.14347    3  3  1   750.43810 76.5   778.14331
  2  1  1   771.58688 46.2   778.18879    3  3  1   750.48441 85.8   778.18962
  2  1  1   771.65549 79.0   778.25740    4  3  1   744.93046 82.9   778.25716
  2  1  1   771.68445 88.4   778.28636    3  3  1   750.58024 85.3   778.28545
  2  1  1   771.71890 41.1   778.32081    4  3  1   744.99478 87.2   778.32148
  2  1  1   771.81057 86.2   778.41248    4  3  1   745.08480 48.6   778.41150
  2  1  1   771.86199 48.1   778.46390    3  3  1   750.75828 64.6   778.46349
  2  1  1   771.92353 85.4   778.52544    3  3  1   750.82028 47.6   778.52549
  2  1  1   771.93876 79.4   778.54067    3  3  1   750.83495 56.5   778.54016
  2  1  1   772.00304 84.9   778.60495    3  3  1   750.89995 38.0   778.60516
  2  1  1   772.02189 88.4   778.62380    4  3  1   745.29757 73.7   778.62427
  2  1  1   772.06324 72.8   778.66515    4  3  1   745.33911 69.0   778.66581
  2  1  1   772.11052 18.0   778.71243    3  3  1   751.00736 86.2   778.71257
  2  1  1   772.11669 41.5   778.71860    3  3  1   751.01310 35.0   778.71831
                                          4  3  1   745.39226 68.7   778.71896
  2  1  1   772.13418 83.3   778.73609    3  3  1   751.03085 36.8   778.73606
  2  1  1   772.21729 81.7   778.81920    3  3  1   751.11314 59.3   778.81835
  2  1  1   772.22194 80.0   778.82385    3  3  1   751.11938 35.7   778.82459
                                          4  3  1   745.49677 33.3   778.82347
  2  1  1   772.23269 89.1   778.83460    4  3  1   745.50694 79.6   778.83364
  2  1  1   772.24418 89.6   778.84609    4  3  1   745.51888 41.5   778.84558
  2  1  1   772.30238 82.7   778.90429    4  3  1   745.57852 32.2   778.90522
  2  1  1   772.32178 89.7   778.92369    3  3  1   751.21851 75.0   778.92372
  2  1  1   772.35580 26.0   778.95771    3  3  1   751.25216 43.0   778.95737
  2  1  1   772.41651 59.4   779.01842    3  3  1   751.31256 71.6   779.01777
  2  1  1   772.46192 80.3   779.06383    3  3  1   751.35791 40.0   779.06312
  2  1  1   772.46684 88.8   779.06875    4  3  1   745.74279 43.9   779.06949
  2  1  1   772.47190 79.3   779.07381    3  3  1   751.36822 85.4   779.07343
  2  1  1   772.51821 75.9   779.12012    3  3  1   751.41433 61.9   779.11954
  2  1  1   772.55965 84.6   779.16156    3  3  1   751.45572 40.6   779.16093
                                          4  3  1   745.83458 67.5   779.16128
  2  1  1   772.57042 62.3   779.17233    4  3  1   745.84487 46.5   779.17157
  2  1  1   772.57592 87.3   779.17783    4  3  1   745.85048 77.6   779.17718
  2  1  1   772.66179 82.3   779.26370    3  3  1   751.55896 60.2   779.26417
  2  1  1   772.73454 84.9   779.33645    4  3  1   746.00888 20.4   779.33558
  2  1  1   772.77757 78.3   779.37948    3  3  1   751.67481 84.3   779.38002
  2  1  1   772.79186 59.4   779.39377    3  3  1   751.68930 87.8   779.39451
  2  1  1   772.79746 66.4   779.39937    3  3  1   751.69375 87.1   779.39896
  2  1  1   772.82897 78.1   779.43088    4  3  1   746.10319 82.5   779.42989
  2  1  1   772.83434 67.2   779.43625    4  3  1   746.10857 62.2   779.43527
  2  1  1   772.84440 85.4   779.44631    4  3  1   746.11911 79.1   779.44581
  2  1  1   772.86785 89.6   779.46976    3  3  1   751.76501 48.4   779.47022
  2  1  1   772.88626 86.2   779.48817    3  3  1   751.78297 47.7   779.48818
                                          4  3  1   746.16094 88.4   779.48764
  2  1  1   772.91542 59.1   779.51733    3  3  1   751.81173 24.3   779.51694
  2  1  1   772.92883 85.0   779.53074    3  3  1   751.82555 87.6   779.53076
  3  3  1   749.84138 88.1   777.54659    4  3  1   744.22039 80.5   777.54709
  3  3  1   749.86016 88.8   777.56537    4  3  1   744.23803 78.2   777.56473
  3  3  1   749.93036 83.5   777.63557    4  3  1   744.30885 38.1   777.63555
  3  3  1   749.98010 68.9   777.68531    4  3  1   744.35772 87.4   777.68442
  3  3  1   750.02713 82.2   777.73234    4  3  1   744.40526 73.3   777.73196
  3  3  1   750.17540 83.7   777.88061    4  3  1   744.55391 69.0   777.88061
  3  3  1   750.19804 49.9   777.90325    4  3  1   744.57715 73.7   777.90385
  3  3  1   750.20437 33.5   777.90958    4  3  1   744.58195 78.1   777.90865
  3  3  1   750.28118 39.4   777.98639    4  3  1   744.65960 69.8   777.98630
  3  3  1   750.41731 53.0   778.12252    4  3  1   744.79601 82.1   778.12271
  3  3  1   750.45114 15.8   778.15635    4  3  1   744.82983 38.4   778.15653
  3  3  1   750.47100 67.5   778.17621    4  3  1   744.84907 82.7   778.17577
  3  3  1   750.52356 83.7   778.22877    4  3  1   744.90113 55.0   778.22783
  3  3  1   750.53385 22.1   778.23906    4  3  1   744.91176 87.3   778.23846
  3  3  1   750.54499 82.9   778.25020    4  3  1   744.92439 49.2   778.25109
  3  3  1   750.56227 87.0   778.26748    4  3  1   744.94106 73.3   778.26776
  3  3  1   750.60819 80.7   778.31340    4  3  1   744.98648 77.6   778.31318
  3  3  1   750.66218 88.0   778.36739    4  3  1   745.04102 83.3   778.36772
  3  3  1   750.69491 63.8   778.40012    4  3  1   745.07402 89.3   778.40072
  3  3  1   750.72922 29.6   778.43443    4  3  1   745.10749 89.9   778.43419
  3  3  1   750.85844 52.5   778.56365    4  3  1   745.23601 84.7   778.56271
  3  3  1   750.97062 17.9   778.67583    4  3  1   745.34849 59.7   778.67519
  3  3  1   751.00736 86.2   778.71257    4  3  1   745.38676 82.6   778.71346
  3  3  1   751.01310 35.0   778.71831    4  3  1   745.39226 68.7   778.71896
  3  3  1   751.01801 51.7   778.72322    4  3  1   745.39585 86.2   778.72255
  3  3  1   751.04693 88.3   778.75214    4  3  1   745.42638 87.3   778.75308
  3  3  1   751.07071 12.6   778.77592    4  3  1   745.44954 54.7   778.77624
  3  3  1   751.09855 80.7   778.80376    4  3  1   745.47618 89.4   778.80288
  3  3  1   751.24425 31.0   778.94946    4  3  1   745.62219 78.5   778.94889
  3  3  1   751.28681 44.0   778.99202    4  3  1   745.66500 63.0   778.99170
  3  3  1   751.37761 55.1   779.08282    4  3  1   745.75612 89.7   779.08282
  3  3  1   751.43645 31.3   779.14166    4  3  1   745.81510 87.3   779.14180
  3  3  1   751.45572 40.6   779.16093    4  3  1   745.83458 67.5   779.16128
  3  3  1   751.48971 65.8   779.19492    4  3  1   745.86870 88.7   779.19540
  3  3  1   751.52093 39.9   779.22614    4  3  1   745.90005 83.9   779.22675
  3  3  1   751.54053 88.4   779.24574    4  3  1   745.91938 82.1   779.24608
  3  3  1   751.54568 75.5   779.25089    4  3  1   745.92489 87.6   779.25159
  3  3  1   751.73523 64.6   779.44044    4  3  1   746.11366 11.6   779.44036
  3  3  1   751.77615 71.2   779.48136    4  3  1   746.15411 75.5   779.48081
  3  3  1   751.78297 47.7   779.48818    4  3  1   746.16094 88.4   779.48764

 Searching   4  2  2 near    784.22109
 No   1:   3  1  2       11.05245  reg   772.169 -   774.169
 No   2:   4  3  2       33.32401  reg   749.897 -   751.897
 No   3:   5  3  2       40.36522  reg   742.856 -   744.856
  3  1  2   772.19149 84.1   783.24394    4  3  2   749.92092 49.6   783.24493
  3  1  2   772.22194 80.0   783.27439    4  3  2   749.95000 77.1   783.27401
  3  1  2   772.23269 89.1   783.28514    5  3  2   742.91970 81.0   783.28492
  3  1  2   772.23918 83.8   783.29163    4  3  2   749.96680 40.6   783.29081
  3  1  2   772.26052 83.8   783.31297    4  3  2   749.98862 15.7   783.31263
  3  1  2   772.30238 82.7   783.35483    4  3  2   750.03127 43.8   783.35528
  3  1  2   772.32178 89.7   783.37423    4  3  2   750.05024 87.7   783.37425
                                          5  3  2   743.00921 89.5   783.37443
  3  1  2   772.34581 82.4   783.39826    5  3  2   743.03364 52.1   783.39886
  3  1  2   772.35580 26.0   783.40825    5  3  2   743.04329 89.3   783.40851
  3  1  2   772.39255 42.9   783.44500    4  3  2   750.12015 87.0   783.44416
  3  1  2   772.40995 28.9   783.46240    4  3  2   750.13741 62.2   783.46142
  3  1  2   772.41651 59.4   783.46896    5  3  2   743.10403 86.8   783.46925
  3  1  2   772.44039 84.7   783.49284    5  3  2   743.12860 83.8   783.49382
  3  1  2   772.44731 59.4   783.49976    4  3  2   750.17540 83.7   783.49941
  3  1  2   772.47190 79.3   783.52435    5  3  2   743.15884 77.9   783.52406
  3  1  2   772.48957 87.4   783.54202    4  3  2   750.21840 65.2   783.54241
  3  1  2   772.51821 75.9   783.57066    5  3  2   743.20464 72.5   783.56986
  3  1  2   772.52839 87.8   783.58084    5  3  2   743.21513 87.0   783.58035
  3  1  2   772.55965 84.6   783.61210    5  3  2   743.24664 54.6   783.61186
  3  1  2   772.56493 55.1   783.61738    4  3  2   750.29257 88.5   783.61658
                                          5  3  2   743.25208 81.2   783.61730
  3  1  2   772.57042 62.3   783.62287    5  3  2   743.25771 39.2   783.62293
  3  1  2   772.62095 21.2   783.67340    5  3  2   743.30831 36.4   783.67353
  3  1  2   772.66179 82.3   783.71424    4  3  2   750.38986 27.8   783.71387
  3  1  2   772.73454 84.9   783.78699    5  3  2   743.42257 43.3   783.78779
  3  1  2   772.77757 78.3   783.83002    5  3  2   743.46469 34.6   783.82991
  3  1  2   772.81498 85.1   783.86743    5  3  2   743.50210 64.0   783.86732
  3  1  2   772.83434 67.2   783.88679    4  3  2   750.56227 87.0   783.88628
  3  1  2   772.86785 89.6   783.92030    4  3  2   750.59712 66.3   783.92113
  3  1  2   772.96197 26.9   784.01442    4  3  2   750.68992 88.5   784.01393
  3  1  2   772.96703 74.3   784.01948    4  3  2   750.69491 63.8   784.01892
  3  1  2   772.99268 87.8   784.04513    4  3  2   750.72154 72.8   784.04555
  3  1  2   773.02412 26.0   784.07657    4  3  2   750.75327 32.6   784.07728
                                          5  3  2   743.71140 89.4   784.07662
  3  1  2   773.02937 84.2   784.08182    4  3  2   750.75828 64.6   784.08229
                                          5  3  2   743.71643 77.5   784.08165
  3  1  2   773.03905 83.5   784.09150    5  3  2   743.72716 81.2   784.09238
  3  1  2   773.06955 88.8   784.12200    4  3  2   750.79816 66.5   784.12217
  3  1  2   773.08115 82.9   784.13360    4  3  2   750.80946 50.8   784.13347
  3  1  2   773.09096 89.9   784.14341    4  3  2   750.82028 47.6   784.14429
  3  1  2   773.16659 23.4   784.21904    5  3  2   743.85458 70.5   784.21980
  3  1  2   773.20006 82.7   784.25251    5  3  2   743.88768 82.8   784.25290
  3  1  2   773.24254 81.4   784.29499    4  3  2   750.97062 17.9   784.29463
                                          5  3  2   743.92953 72.3   784.29475
  3  1  2   773.25907 34.3   784.31152    5  3  2   743.94603 76.7   784.31125
  3  1  2   773.35622 89.8   784.40867    4  3  2   751.08385 41.8   784.40786
  3  1  2   773.42211 78.5   784.47456    5  3  2   744.10886 49.5   784.47408
  3  1  2   773.45823 81.0   784.51068    4  3  2   751.18764 57.4   784.51165
  3  1  2   773.55831 89.8   784.61076    4  3  2   751.28681 44.0   784.61082
  3  1  2   773.64852 89.9   784.70097    4  3  2   751.37761 55.1   784.70162
  3  1  2   773.71713 22.2   784.76958    5  3  2   744.40526 73.3   784.77048
  3  1  2   773.72647 86.2   784.77892    4  3  2   751.45572 40.6   784.77973
  3  1  2   773.74214 75.5   784.79459    4  3  2   751.47014 84.8   784.79415
  3  1  2   773.82084 78.1   784.87329    5  3  2   744.50870 31.0   784.87392
  3  1  2   773.88087 57.2   784.93332    4  3  2   751.60930 84.8   784.93331
  3  1  2   773.88643 50.1   784.93888    4  3  2   751.61512 57.2   784.93913
  3  1  2   773.89614 87.9   784.94859    4  3  2   751.62461 70.3   784.94862
  3  1  2   773.91375 56.0   784.96620    5  3  2   744.60081 74.5   784.96603
  3  1  2   773.95076 67.3   785.00321    4  3  2   751.67824 84.9   785.00225
  3  1  2   773.96078 61.6   785.01323    4  3  2   751.68930 87.8   785.01331
  3  1  2   773.97272 79.1   785.02517    5  3  2   744.65960 69.8   785.02482
  3  1  2   774.07234 85.7   785.12479    5  3  2   744.76013 39.9   785.12535
  3  1  2   774.10935 79.6   785.16180    5  3  2   744.79601 82.1   785.16123
  3  1  2   774.12152 73.6   785.17397    4  3  2   751.84937 67.1   785.17338
  4  3  2   749.90754 56.8   783.23155    5  3  2   742.86609 48.6   783.23131
  4  3  2   749.91297 88.1   783.23698    5  3  2   742.87188 37.8   783.23710
  4  3  2   749.98010 68.9   783.30411    5  3  2   742.93967 77.0   783.30489
  4  3  2   749.99761 24.0   783.32162    5  3  2   742.95587 50.0   783.32109
  4  3  2   750.01225 41.3   783.33626    5  3  2   742.97150 51.0   783.33672
  4  3  2   750.04615 71.9   783.37016    5  3  2   743.00483 87.4   783.37005
  4  3  2   750.05024 87.7   783.37425    5  3  2   743.00921 89.5   783.37443
  4  3  2   750.05539 88.9   783.37940    5  3  2   743.01470 27.4   783.37992
