Range    : 1.000
Accuracy : 0.001
Control file  : C2HD3gr   
Spectrum file : s         

 Searching   2  2  1 near    774.27805
 No   1:   1  1  1        3.45881  reg   769.819 -   771.819
 No   2:   2  1  1        6.60191  reg   766.676 -   768.676
 No   3:   3  3  1       27.70521  reg   745.573 -   747.573
  1  1  1   769.89959 11.8   773.35840    2  1  1   766.75744 89.2   773.35935
  1  1  1   770.00227 20.2   773.46108    3  3  1   745.75612 89.7   773.46133
  1  1  1   770.04637 27.5   773.50518    3  3  1   745.80048 59.5   773.50569
  1  1  1   770.06318 75.4   773.52199    2  1  1   766.92012 81.4   773.52203
  1  1  1   770.06732 89.6   773.52613    2  1  1   766.92520 83.5   773.52711
  1  1  1   770.09046 88.6   773.54927    3  3  1   745.84487 46.5   773.55008
  1  1  1   770.13006 77.5   773.58887    2  1  1   766.98604 69.1   773.58795
  1  1  1   770.14729 85.9   773.60610    3  3  1   745.90005 83.9   773.60526
  1  1  1   770.18618 87.8   773.64499    3  3  1   745.93936 83.9   773.64457
  1  1  1   770.19012 88.6   773.64893    3  3  1   745.94410 68.3   773.64931
  1  1  1   770.21034 55.6   773.66915    2  1  1   767.06745 53.1   773.66936
  1  1  1   770.23173 14.0   773.69054    3  3  1   745.98473 83.7   773.68994
  1  1  1   770.23866 74.7   773.69747    2  1  1   767.09604 85.2   773.69795
  1  1  1   770.25849 54.9   773.71730    2  1  1   767.11469 89.4   773.71660
  1  1  1   770.32787 82.5   773.78668    3  3  1   746.08050 81.9   773.78571
  1  1  1   770.39999 32.4   773.85880    3  3  1   746.15411 75.5   773.85932
  1  1  1   770.41207 66.2   773.87088    3  3  1   746.16568 84.7   773.87089
  1  1  1   770.41944 88.5   773.87825    3  3  1   746.17246 63.1   773.87767
  1  1  1   770.42978 86.7   773.88859    2  1  1   767.28764 50.0   773.88955
  1  1  1   770.45460 86.7   773.91341    3  3  1   746.20758 85.4   773.91279
  1  1  1   770.45985 87.1   773.91866    3  3  1   746.21278 12.5   773.91799
  1  1  1   770.46458 83.1   773.92339    3  3  1   746.21814 65.9   773.92335
  1  1  1   770.48516 84.4   773.94397    3  3  1   746.23811 81.4   773.94332
  1  1  1   770.51413 43.3   773.97294    2  1  1   767.37193 87.2   773.97384
  1  1  1   770.52884 78.4   773.98765    2  1  1   767.38593 86.9   773.98784
  1  1  1   770.59515 81.2   774.05396    2  1  1   767.45149 36.9   774.05340
  1  1  1   770.60893 73.6   774.06774    2  1  1   767.46485 85.5   774.06676
  1  1  1   770.62513 34.1   774.08394    2  1  1   767.48258 86.9   774.08449
                                          3  3  1   746.37797 80.3   774.08318
  1  1  1   770.63108 34.3   774.08989    3  3  1   746.38454 36.5   774.08975
  1  1  1   770.66675 75.2   774.12556    2  1  1   767.52356 87.7   774.12547
  1  1  1   770.67177 81.9   774.13058    2  1  1   767.52911 82.1   774.13102
  1  1  1   770.68533 84.2   774.14414    2  1  1   767.54305 85.9   774.14496
                                          3  3  1   746.43916 78.2   774.14437
  1  1  1   770.69945 76.5   774.15826    3  3  1   746.45328 86.9   774.15849
  1  1  1   770.74080 51.7   774.19961    2  1  1   767.59835 89.2   774.20026
                                          3  3  1   746.49356 81.6   774.19877
  1  1  1   770.74683 84.7   774.20564    2  1  1   767.60414 85.9   774.20605
  1  1  1   770.75310 36.1   774.21191    2  1  1   767.60927 63.2   774.21118
  1  1  1   770.75919 79.2   774.21800    3  3  1   746.51356 87.1   774.21877
  1  1  1   770.76479 75.5   774.22360    3  3  1   746.51881 36.8   774.22402
  1  1  1   770.83531 86.8   774.29412    3  3  1   746.58946 61.0   774.29467
  1  1  1   770.91761 71.1   774.37642    2  1  1   767.77373 72.0   774.37564
                                          3  3  1   746.67167 22.7   774.37688
  1  1  1   770.93758 78.9   774.39639    2  1  1   767.79497 85.9   774.39688
  1  1  1   770.95984 81.3   774.41865    2  1  1   767.81698 63.9   774.41889
  1  1  1   770.96681 83.2   774.42562    3  3  1   746.72054 72.5   774.42575
  1  1  1   770.98186 50.5   774.44067    2  1  1   767.83874 33.2   774.44065
                                          3  3  1   746.73489 81.0   774.44010
  1  1  1   771.04421 70.0   774.50302    3  3  1   746.79698 56.9   774.50219
  1  1  1   771.10045 82.3   774.55926    2  1  1   767.95821 86.7   774.56012
  1  1  1   771.10619 72.8   774.56500    2  1  1   767.96347 77.3   774.56538
  1  1  1   771.11124 84.5   774.57005    2  1  1   767.96762 81.4   774.56953
  1  1  1   771.11505 83.1   774.57386    2  1  1   767.97209 74.8   774.57400
  1  1  1   771.16351 83.2   774.62232    3  3  1   746.91728 76.0   774.62249
  1  1  1   771.18589 63.6   774.64470    2  1  1   768.04289 25.1   774.64480
  1  1  1   771.19595 84.7   774.65476    2  1  1   768.05359 83.4   774.65550
  1  1  1   771.21878 75.0   774.67759    3  3  1   746.97282 85.0   774.67803
  1  1  1   771.22407 77.3   774.68288    3  3  1   746.97861 38.7   774.68382
  1  1  1   771.22798 58.6   774.68679    2  1  1   768.08522 81.5   774.68713
  1  1  1   771.26608 51.6   774.72489    3  3  1   747.02025 89.7   774.72546
  1  1  1   771.32776 17.3   774.78657    2  1  1   768.18411 16.9   774.78602
  1  1  1   771.33700 63.5   774.79581    2  1  1   768.19318 83.2   774.79509
                                          3  3  1   747.09001 17.2   774.79522
  1  1  1   771.38000 77.9   774.83881    2  1  1   768.23784 66.3   774.83975
  1  1  1   771.38759 54.3   774.84640    2  1  1   768.24386 82.7   774.84577
                                          3  3  1   747.14019 65.3   774.84540
  1  1  1   771.41784 41.5   774.87665    3  3  1   747.17125 62.6   774.87646
  1  1  1   771.43167 61.6   774.89048    2  1  1   768.28799 42.8   774.88990
  1  1  1   771.43638 76.4   774.89519    2  1  1   768.29329 16.0   774.89520
  1  1  1   771.45316 19.8   774.91197    2  1  1   768.30961 77.7   774.91152
  1  1  1   771.48809 89.4   774.94690    3  3  1   747.24078 75.0   774.94599
  1  1  1   771.49749 78.0   774.95630    2  1  1   768.35419 47.3   774.95610
  1  1  1   771.54156 12.0   775.00037    2  1  1   768.39843 65.0   775.00034
                                          3  3  1   747.29548 74.3   775.00069
  1  1  1   771.58086 89.6   775.03967    2  1  1   768.43797 76.6   775.03988
  1  1  1   771.58688 46.2   775.04569    2  1  1   768.44332 79.7   775.04523
  1  1  1   771.62043 88.9   775.07924    2  1  1   768.47649 53.6   775.07840
  1  1  1   771.65549 79.0   775.11430    3  3  1   747.40833 89.4   775.11354
  1  1  1   771.71890 41.1   775.17771    2  1  1   768.57516 81.9   775.17707
  1  1  1   771.73718 81.3   775.19599    2  1  1   768.59439 64.5   775.19630
  1  1  1   771.74264 62.1   775.20145    2  1  1   768.59889 70.7   775.20080
  1  1  1   771.77272 79.8   775.23153    3  3  1   747.52690 65.2   775.23211
  2  1  1   766.75744 89.2   773.35935    3  3  1   745.65473 79.1   773.35994
  2  1  1   766.77513 57.5   773.37704    3  3  1   745.67260 79.0   773.37781
  2  1  1   766.78061 75.1   773.38252    3  3  1   745.67784 31.5   773.38305
  2  1  1   766.78638 14.0   773.38829    3  3  1   745.68352 71.9   773.38873
  2  1  1   766.87815 81.7   773.48006    3  3  1   745.77500 27.0   773.48021
  2  1  1   766.88375 80.5   773.48566    3  3  1   745.78050 77.2   773.48571
  2  1  1   767.08200 86.4   773.68391    3  3  1   745.97873 33.8   773.68394
  2  1  1   767.08726 58.6   773.68917    3  3  1   745.98473 83.7   773.68994
  2  1  1   767.12573 82.3   773.72764    3  3  1   746.02315 59.5   773.72836
  2  1  1   767.16720 78.4   773.76911    3  3  1   746.06473 10.1   773.76994
  2  1  1   767.20607 70.3   773.80798    3  3  1   746.10319 82.5   773.80840
  2  1  1   767.21137 75.8   773.81328    3  3  1   746.10857 62.2   773.81378
  2  1  1   767.21673 60.1   773.81864    3  3  1   746.11366 11.6   773.81887
  2  1  1   767.25826 81.9   773.86017    3  3  1   746.15411 75.5   773.85932
  2  1  1   767.28262 65.4   773.88453    3  3  1   746.18013 89.2   773.88534
  2  1  1   767.54305 85.9   774.14496    3  3  1   746.43916 78.2   774.14437
  2  1  1   767.64569 81.8   774.24760    3  3  1   746.54197 10.8   774.24718
  2  1  1   767.69823 82.1   774.30014    3  3  1   746.59483 66.0   774.30004
  2  1  1   767.71521 86.2   774.31712    3  3  1   746.61139 68.2   774.31660
  2  1  1   767.72045 70.0   774.32236    3  3  1   746.61802 88.4   774.32323
  2  1  1   767.83874 33.2   774.44065    3  3  1   746.73489 81.0   774.44010
  2  1  1   767.84674 27.1   774.44865    3  3  1   746.74378 83.5   774.44899
  2  1  1   767.86409 42.9   774.46600    3  3  1   746.76122 24.1   774.46643
  2  1  1   767.88768 55.6   774.48959    3  3  1   746.78352 35.5   774.48873
  2  1  1   767.95363 86.5   774.55554    3  3  1   746.85075 69.5   774.55596
  2  1  1   768.14335 88.2   774.74526    3  3  1   747.04062 63.2   774.74583
  2  1  1   768.19318 83.2   774.79509    3  3  1   747.09001 17.2   774.79522
  2  1  1   768.22735 89.8   774.82926    3  3  1   747.12435 81.4   774.82956
  2  1  1   768.23784 66.3   774.83975    3  3  1   747.13481 61.3   774.84002
  2  1  1   768.24386 82.7   774.84577    3  3  1   747.14019 65.3   774.84540
  2  1  1   768.36438 86.2   774.96629    3  3  1   747.26160 61.9   774.96681
  2  1  1   768.38857 80.2   774.99048    3  3  1   747.28582 27.5   774.99103
  2  1  1   768.39843 65.0   775.00034    3  3  1   747.29548 74.3   775.00069
  2  1  1   768.40832 69.9   775.01023    3  3  1   747.30515 49.4   775.01036
  2  1  1   768.43334 89.9   775.03525    3  3  1   747.33028 78.5   775.03549
  2  1  1   768.44747 89.6   775.04938    3  3  1   747.34382 70.6   775.04903
  2  1  1   768.50548 76.3   775.10739    3  3  1   747.40222 84.5   775.10743
  2  1  1   768.64331 53.0   775.24522    3  3  1   747.54094 88.3   775.24615
  2  1  1   768.67899 80.3   775.28090    3  3  1   747.57557 68.4   775.28078

 Searching   3  2  2 near    778.47774
 No   1:   2  1  2        6.08707  reg   771.391 -   773.391
 No   2:   3  1  2       11.05245  reg   766.425 -   768.425
 No   3:   4  3  2       33.32401  reg   744.154 -   746.154
  2  1  2   771.43167 61.6   777.51874    3  1  2   766.46635 47.9   777.51880
  2  1  2   771.43638 76.4   777.52345    3  1  2   766.47154 79.4   777.52399
  2  1  2   771.44129 69.5   777.52836    3  1  2   766.47653 85.6   777.52898
  2  1  2   771.44676 88.6   777.53383    3  1  2   766.48091 78.5   777.53336
  2  1  2   771.50627 85.8   777.59334    4  3  2   744.26858 69.8   777.59259
  2  1  2   771.58688 46.2   777.67395    3  1  2   766.62085 88.5   777.67330
  2  1  2   771.62043 88.9   777.70750    4  3  2   744.38286 73.3   777.70687
  2  1  2   771.71890 41.1   777.80597    3  1  2   766.75326 88.2   777.80571
  2  1  2   771.72753 77.1   777.81460    3  1  2   766.76306 79.5   777.81551
                                          4  3  2   744.49076 71.6   777.81477
  2  1  2   771.77272 79.8   777.85979    3  1  2   766.80753 79.9   777.85998
  2  1  2   771.79142 78.0   777.87849    4  3  2   744.55391 69.0   777.87792
  2  1  2   771.92353 85.4   778.01060    4  3  2   744.68620 17.3   778.01021
  2  1  2   771.93876 79.4   778.02583    3  1  2   766.97314 85.3   778.02559
  2  1  2   771.99777 86.0   778.08484    4  3  2   744.76013 39.9   778.08414
  2  1  2   772.00304 84.9   778.09011    4  3  2   744.76609 65.8   778.09010
  2  1  2   772.02189 88.4   778.10896    4  3  2   744.78565 19.8   778.10966
  2  1  2   772.03269 36.9   778.11976    3  1  2   767.06745 53.1   778.11990
                                          4  3  2   744.79601 82.1   778.12002
  2  1  2   772.09074 89.9   778.17781    3  1  2   767.12573 82.3   778.17818
  2  1  2   772.18577 87.1   778.27284    3  1  2   767.22113 86.4   778.27358
  2  1  2   772.21729 81.7   778.30436    4  3  2   744.98067 51.7   778.30468
  2  1  2   772.23269 89.1   778.31976    3  1  2   767.26776 85.6   778.32021
                                          4  3  2   744.99478 87.2   778.31879
  2  1  2   772.24418 89.6   778.33125    3  1  2   767.27788 18.6   778.33033
  2  1  2   772.30238 82.7   778.38945    4  3  2   745.06465 85.7   778.38866
  2  1  2   772.32178 89.7   778.40885    4  3  2   745.08480 48.6   778.40881
  2  1  2   772.39255 42.9   778.47962    4  3  2   745.15634 60.8   778.48035
  2  1  2   772.41651 59.4   778.50358    3  1  2   767.45149 36.9   778.50394
  2  1  2   772.44731 59.4   778.53438    3  1  2   767.48258 86.9   778.53503
  2  1  2   772.46684 88.8   778.55391    4  3  2   745.23085 82.5   778.55486
  2  1  2   772.48957 87.4   778.57664    3  1  2   767.52356 87.7   778.57601
  2  1  2   772.51821 75.9   778.60528    4  3  2   745.28051 89.7   778.60452
  2  1  2   772.57042 62.3   778.65749    3  1  2   767.60414 85.9   778.65659
                                          4  3  2   745.33307 79.4   778.65708
  2  1  2   772.57592 87.3   778.66299    4  3  2   745.33911 69.0   778.66312
  2  1  2   772.58597 82.4   778.67304    4  3  2   745.34849 59.7   778.67250
  2  1  2   772.59077 71.7   778.67784    4  3  2   745.35320 76.2   778.67721
  2  1  2   772.60117 89.0   778.68824    4  3  2   745.36355 73.3   778.68756
  2  1  2   772.60627 82.7   778.69334    3  1  2   767.64046 61.6   778.69291
  2  1  2   772.61077 42.2   778.69784    3  1  2   767.64569 81.8   778.69814
  2  1  2   772.62671 87.6   778.71378    3  1  2   767.66128 77.9   778.71373
  2  1  2   772.66688 23.3   778.75395    4  3  2   745.43084 86.9   778.75485
  2  1  2   772.73454 84.9   778.82161    4  3  2   745.49677 33.3   778.82078
  2  1  2   772.79186 59.4   778.87893    3  1  2   767.82563 80.2   778.87808
  2  1  2   772.79746 66.4   778.88453    3  1  2   767.83156 19.0   778.88401
  2  1  2   772.81498 85.1   778.90205    4  3  2   745.57852 32.2   778.90253
  2  1  2   772.82897 78.1   778.91604    3  1  2   767.86409 42.9   778.91654
  2  1  2   772.83434 67.2   778.92141    3  1  2   767.86975 53.7   778.92220
  2  1  2   772.84440 85.4   778.93147    3  1  2   767.87851 81.3   778.93096
  2  1  2   772.84952 87.4   778.93659    4  3  2   745.61334 82.9   778.93735
  2  1  2   772.86785 89.6   778.95492    3  1  2   767.90215 76.0   778.95460
  2  1  2   772.91542 59.1   779.00249    4  3  2   745.67784 31.5   779.00185
  2  1  2   772.92883 85.0   779.01590    3  1  2   767.96347 77.3   779.01592
  2  1  2   772.93834 89.9   779.02541    3  1  2   767.97209 74.8   779.02454
  2  1  2   772.99268 87.8   779.07975    4  3  2   745.75612 89.7   779.08013
  2  1  2   773.00734 57.8   779.09441    3  1  2   768.04289 25.1   779.09534
  2  1  2   773.01384 88.9   779.10091    3  1  2   768.04859 88.7   779.10104
  2  1  2   773.01834 87.0   779.10541    3  1  2   768.05359 83.4   779.10604
                                          4  3  2   745.78050 77.2   779.10451
  2  1  2   773.02937 84.2   779.11644    3  1  2   768.06444 84.4   779.11689
  2  1  2   773.08115 82.9   779.16822    4  3  2   745.84487 46.5   779.16888
  2  1  2   773.09096 89.9   779.17803    4  3  2   745.85457 87.6   779.17858
  2  1  2   773.15004 88.4   779.23711    3  1  2   768.18411 16.9   779.23656
  2  1  2   773.15931 84.7   779.24638    3  1  2   768.19318 83.2   779.24563
  2  1  2   773.25907 34.3   779.34614    3  1  2   768.29329 16.0   779.34574
  2  1  2   773.35622 89.8   779.44329    4  3  2   746.11911 79.1   779.44312
  2  1  2   773.37296 17.5   779.46003    3  1  2   768.40832 69.9   779.46077
  3  1  2   766.42476 55.3   777.47721    4  3  2   744.15261 89.6   777.47662
  3  1  2   766.50387 50.5   777.55632    4  3  2   744.23163 51.8   777.55564
  3  1  2   766.56561 76.0   777.61806    4  3  2   744.29504 58.8   777.61905
  3  1  2   766.58592 76.9   777.63837    4  3  2   744.31486 70.4   777.63887
  3  1  2   766.76306 79.5   777.81551    4  3  2   744.49076 71.6   777.81477
  3  1  2   766.78061 75.1   777.83306    4  3  2   744.50870 31.0   777.83271
  3  1  2   766.78638 14.0   777.83883    4  3  2   744.51478 74.6   777.83879
  3  1  2   766.84812 72.4   777.90057    4  3  2   744.57715 73.7   777.90116
  3  1  2   766.90707 77.6   777.95952    4  3  2   744.63477 20.7   777.95878
  3  1  2   766.94947 60.3   778.00192    4  3  2   744.67816 16.6   778.00217
  3  1  2   767.06745 53.1   778.11990    4  3  2   744.79601 82.1   778.12002
  3  1  2   767.13128 70.5   778.18373    4  3  2   744.85915 46.6   778.18316
  3  1  2   767.17316 80.6   778.22561    4  3  2   744.90113 55.0   778.22514
  3  1  2   767.18712 87.1   778.23957    4  3  2   744.91633 85.4   778.24034
  3  1  2   767.19668 21.2   778.24913    4  3  2   744.92439 49.2   778.24840
  3  1  2   767.25826 81.9   778.31071    4  3  2   744.98648 77.6   778.31049
  3  1  2   767.29766 69.8   778.35011    4  3  2   745.02559 83.9   778.34960
  3  1  2   767.60414 85.9   778.65659    4  3  2   745.33307 79.4   778.65708
  3  1  2   767.63469 35.0   778.68714    4  3  2   745.36355 73.3   778.68756
  3  1  2   767.69823 82.1   778.75068    4  3  2   745.42638 87.3   778.75039
  3  1  2   767.71521 86.2   778.76766    4  3  2   745.44406 88.7   778.76807
  3  1  2   767.72045 70.0   778.77290    4  3  2   745.44954 54.7   778.77355
  3  1  2   767.77373 72.0   778.82618    4  3  2   745.50239 88.0   778.82640
  3  1  2   767.81698 63.9   778.86943    4  3  2   745.54559 62.5   778.86960
  3  1  2   767.83874 33.2   778.89119    4  3  2   745.56735 89.7   778.89136
  3  1  2   767.94432 82.5   778.99677    4  3  2   745.67260 79.0   778.99661
  3  1  2   767.94900 84.9   779.00145    4  3  2   745.67784 31.5   779.00185
  3  1  2   767.96762 81.4   779.02007    4  3  2   745.69670 73.3   779.02071
  3  1  2   768.02856 15.3   779.08101    4  3  2   745.75612 89.7   779.08013
  3  1  2   768.22735 89.8   779.27980    4  3  2   745.95672 83.5   779.28073
  3  1  2   768.36980 64.0   779.42225    4  3  2   746.09802 78.1   779.42203

 Searching   4  2  3 near    784.06924
 No   1:   3  1  3       10.02318  reg   773.046 -   775.046
 No   2:   4  1  3       16.97345  reg   766.096 -   768.096
 No   3:   5  3  3       40.35448  reg   742.715 -   744.715
  3  1  3   773.06955 88.8   783.09273    4  1  3   766.11945 76.2   783.09290
  3  1  3   773.14508 81.0   783.16826    5  3  3   742.81379 84.8   783.16827
  3  1  3   773.15004 88.4   783.17322    5  3  3   742.81836 75.3   783.17284
  3  1  3   773.15499 89.6   783.17817    4  1  3   766.20448 30.6   783.17793
                                          5  3  3   742.82377 66.3   783.17825
  3  1  3   773.15931 84.7   783.18249    4  1  3   766.20977 58.7   783.18322
                                          5  3  3   742.82888 44.5   783.18336
  3  1  3   773.16659 23.4   783.18977    4  1  3   766.21544 84.2   783.18889
  3  1  3   773.17386 83.8   783.19704    5  3  3   742.84193 62.8   783.19641
  3  1  3   773.18436 57.9   783.20754    4  1  3   766.23462 74.7   783.20807
  3  1  3   773.21113 84.9   783.23431    4  1  3   766.26114 80.0   783.23459
  3  1  3   773.24254 81.4   783.26572    4  1  3   766.29276 48.3   783.26621
  3  1  3   773.27615 73.5   783.29933    5  3  3   742.94417 48.2   783.29865
  3  1  3   773.36147 19.7   783.38465    5  3  3   743.02939 88.7   783.38387
  3  1  3   773.41625 86.3   783.43943    4  1  3   766.46635 47.9   783.43980
  3  1  3   773.42211 78.5   783.44529    4  1  3   766.47154 79.4   783.44499
  3  1  3   773.46390 72.8   783.48708    5  3  3   743.13313 79.6   783.48761
  3  1  3   773.47004 89.6   783.49322    5  3  3   743.13929 55.3   783.49377
  3  1  3   773.52054 69.5   783.54372    5  3  3   743.18919 85.1   783.54367
