Range    : 5.000
Accuracy : 0.001
Control file  : C2HD3gr   
Spectrum file : w         

 Searching   4  4  1 near    772.31318
 No   1:   3  3  1       27.70521  reg   739.608 -   749.608
 No   2:   4  3  1       33.32670  reg   733.986 -   743.986
 No   3:   5  5  1       74.60328  reg   692.710 -   702.710
  3  3  1   739.61566 86.6   767.32087    4  3  1   733.99467 73.0   767.32137
  3  3  1   740.23709 50.9   767.94230    5  5  1   693.33818 84.7   767.94146
  3  3  1   740.54108 74.4   768.24629    5  5  1   693.64361 86.4   768.24689
  3  3  1   741.17430 79.6   768.87951    4  3  1   735.55308 89.1   768.87978
  3  3  1   741.35700 81.4   769.06221    5  5  1   694.45866 51.7   769.06194
  3  3  1   741.41135 87.2   769.11656    5  5  1   694.51359 83.1   769.11687
  3  3  1   741.61843 70.6   769.32364    4  3  1   735.99614 89.8   769.32284
  3  3  1   742.08699 87.0   769.79220    5  5  1   695.18912 73.1   769.79240
  3  3  1   742.12593 86.1   769.83114    4  3  1   736.50366 28.3   769.83036
  3  3  1   742.17996 87.6   769.88517    4  3  1   736.55747 85.4   769.88417
  3  3  1   742.35238 65.9   770.05759    5  5  1   695.45397 87.7   770.05725
  3  3  1   742.46341 75.8   770.16862    5  5  1   695.56574 84.2   770.16902
  3  3  1   744.43293 85.2   772.13814    4  3  1   738.81064 78.4   772.13734
  3  3  1   744.53195 77.1   772.23716    4  3  1   738.91132 90.0   772.23802
  3  3  1   744.79108 87.4   772.49629    4  3  1   739.17005 85.9   772.49675
  3  3  1   745.43805 58.6   773.14326    4  3  1   739.81574 89.0   773.14244
                                          5  5  1   698.53952 63.5   773.14280
  3  3  1   746.43479 87.5   774.14000    4  3  1   740.81348 88.5   774.14018
  3  3  1   746.52451 88.3   774.22972    4  3  1   740.90259 85.0   774.22929
  3  3  1   746.54271 75.0   774.24792    4  3  1   740.92057 87.9   774.24727
  3  3  1   746.78348 88.5   774.48869    4  3  1   741.16271 83.8   774.48941
  3  3  1   747.28649 87.7   774.99170    4  3  1   741.66424 76.2   774.99094
  3  3  1   748.30497 56.1   776.01018    4  3  1   742.68340 90.0   776.01010
  3  3  1   748.34817 88.1   776.05338    5  5  1   701.45081 88.7   776.05409
  3  3  1   748.59431 88.6   776.29952    5  5  1   701.69702 77.2   776.30030
  3  3  1   749.23985 90.0   776.94506    5  5  1   702.34095 56.5   776.94423
  4  3  1   734.08275 86.8   767.40945    5  5  1   692.80579 76.2   767.40907
  4  3  1   734.67287 83.7   767.99957    5  5  1   693.39627 49.3   767.99955
  4  3  1   736.19994 89.1   769.52664    5  5  1   694.92433 85.2   769.52761
  4  3  1   736.26868 57.5   769.59538    5  5  1   694.99267 83.4   769.59595
  4  3  1   736.47509 46.6   769.80179    5  5  1   695.19869 88.3   769.80197
  4  3  1   737.04447 88.5   770.37117    5  5  1   695.76771 86.5   770.37099
  4  3  1   738.28214 61.4   771.60884    5  5  1   697.00636 54.6   771.60964
  4  3  1   738.91132 90.0   772.23802    5  5  1   697.63551 49.2   772.23879
  4  3  1   739.81574 89.0   773.14244    5  5  1   698.53952 63.5   773.14280
  4  3  1   741.54393 88.2   774.87063    5  5  1   700.26767 82.8   774.87095
  4  3  1   742.37592 78.3   775.70262    5  5  1   701.09875 90.0   775.70203
  4  3  1   743.86092 60.3   777.18762    5  5  1   702.58499 86.8   777.18827

 Searching   5  4  2 near    779.33476
 No   1:   4  3  2       33.32401  reg   741.011 -   751.011
 No   2:   5  3  2       40.36522  reg   733.970 -   743.970
 No   3:   6  5  2       83.02684  reg   691.308 -   701.308
  4  3  2   741.07490 71.3   774.39891    6  5  2   691.37282 85.7   774.39966
  4  3  2   741.35700 81.4   774.68101    5  3  2   734.31579 83.4   774.68101
  4  3  2   741.73811 85.5   775.06212    6  5  2   692.03428 89.3   775.06112
  4  3  2   741.75781 27.7   775.08182    5  3  2   734.71647 85.1   775.08169
  4  3  2   741.87793 82.3   775.20194    5  3  2   734.83758 79.4   775.20280
  4  3  2   741.94178 86.8   775.26579    5  3  2   734.90042 34.5   775.26564
  4  3  2   742.47458 34.4   775.79859    6  5  2   692.77079 85.6   775.79763
  4  3  2   743.54478 72.9   776.86879    5  3  2   736.50366 28.3   776.86888
  4  3  2   743.77796 27.2   777.10197    5  3  2   736.73655 84.9   777.10177
  4  3  2   743.89492 45.3   777.21893    5  3  2   736.85437 89.0   777.21959
  4  3  2   744.36364 89.6   777.68765    5  3  2   737.32326 77.6   777.68848
  4  3  2   744.54924 76.0   777.87325    6  5  2   694.84714 85.0   777.87398
  4  3  2   744.59627 62.0   777.92028    5  3  2   737.55464 44.8   777.91986
  4  3  2   745.41561 62.2   778.73962    6  5  2   695.71355 81.6   778.74039
  4  3  2   747.35091 89.5   780.67492    5  3  2   740.31034 35.6   780.67556
  4  3  2   747.36438 27.7   780.68839    6  5  2   697.66091 19.1   780.68775
  4  3  2   747.51974 86.0   780.84375    5  3  2   740.47900 30.2   780.84422
  4  3  2   748.20912 85.9   781.53313    6  5  2   698.50615 65.4   781.53299
  4  3  2   748.21454 84.3   781.53855    5  3  2   741.17430 79.6   781.53952
  4  3  2   748.32852 79.6   781.65253    6  5  2   698.62613 82.0   781.65297
  4  3  2   748.45304 44.9   781.77706    5  3  2   741.41135 87.2   781.77657
  4  3  2   748.70566 71.8   782.02967    5  3  2   741.66424 76.2   782.02946
  4  3  2   749.31247 71.0   782.63648    6  5  2   699.60930 89.7   782.63614
  4  3  2   749.39340 58.1   782.71741    5  3  2   742.35238 65.9   782.71760
  4  3  2   749.65832 80.1   782.98233    6  5  2   699.95533 85.6   782.98217
  4  3  2   749.98938 80.0   783.31339    5  3  2   742.94839 76.7   783.31361
  4  3  2   750.20394 87.1   783.52795    5  3  2   743.16220 89.1   783.52742
  4  3  2   750.49614 79.2   783.82015    6  5  2   700.79349 87.2   783.82033
  4  3  2   750.62712 89.5   783.95113    6  5  2   700.92403 68.3   783.95087
  4  3  2   750.73683 23.1   784.06084    6  5  2   701.03347 57.1   784.06031
  5  3  2   734.20729 25.4   774.57251    6  5  2   691.54531 83.7   774.57215
  5  3  2   735.28900 84.2   775.65422    6  5  2   692.62724 88.7   775.65408
  5  3  2   736.18123 88.6   776.54645    6  5  2   693.51915 85.7   776.54599
  5  3  2   736.89239 35.7   777.25761    6  5  2   694.23053 89.1   777.25737
  5  3  2   737.13829 89.8   777.50351    6  5  2   694.47591 89.4   777.50275
  5  3  2   737.32326 77.6   777.68848    6  5  2   694.66246 71.0   777.68930
  5  3  2   739.43395 73.6   779.79917    6  5  2   696.77143 15.6   779.79827
  5  3  2   739.50373 85.0   779.86895    6  5  2   696.84295 83.9   779.86979
  5  3  2   739.83283 81.8   780.19805    6  5  2   697.17120 39.3   780.19804
  5  3  2   739.87130 76.9   780.23652    6  5  2   697.20912 76.1   780.23596
  5  3  2   740.23709 50.9   780.60231    6  5  2   697.57499 26.3   780.60183
  5  3  2   740.43515 21.0   780.80037    6  5  2   697.77399 63.2   780.80083
  5  3  2   740.44080 88.9   780.80602    6  5  2   697.77909 80.1   780.80593
  5  3  2   740.86954 68.5   781.23476    6  5  2   698.20828 89.9   781.23512
  5  3  2   741.89604 89.3   782.26126    6  5  2   699.23474 88.5   782.26158
  5  3  2   742.20933 64.5   782.57455    6  5  2   699.54767 87.6   782.57451
  5  3  2   743.47396 89.3   783.83918    6  5  2   700.81268 36.0   783.83952

 Searching   6  4  3 near    787.76783
 No   1:   5  3  3       40.35448  reg   742.413 -   752.413
 No   2:   6  3  3       48.83140  reg   733.936 -   743.936
 No   3:   7  5  3       92.86053  reg   689.907 -   699.907
  5  3  3   742.68340 90.0   783.03788    6  3  3   734.20729 25.4   783.03869
  5  3  3   743.25765 88.6   783.61213    7  5  3   690.75160 89.0   783.61213
  5  3  3   743.37806 87.6   783.73254    6  3  3   734.90042 34.5   783.73182
                                          7  5  3   690.87196 74.7   783.73249
  5  3  3   743.67377 80.0   784.02825    6  3  3   735.19604 86.0   784.02744
  5  3  3   744.05212 89.3   784.40660    7  5  3   691.54531 83.7   784.40584
  5  3  3   744.28836 74.4   784.64284    7  5  3   691.78199 61.5   784.64252
  5  3  3   744.36364 89.6   784.71812    7  5  3   691.85757 81.1   784.71810
  5  3  3   744.53195 77.1   784.88643    6  3  3   736.05538 81.0   784.88678
  5  3  3   744.60681 71.5   784.96129    6  3  3   736.12933 65.5   784.96073
  5  3  3   744.74484 86.1   785.09932    6  3  3   736.26868 57.5   785.10008
  5  3  3   744.81229 79.5   785.16677    6  3  3   736.33469 74.5   785.16609
  5  3  3   745.67895 87.2   786.03343    6  3  3   737.20248 87.5   786.03388
  5  3  3   745.69130 38.8   786.04578    7  5  3   693.18431 89.6   786.04484
  5  3  3   745.77588 84.9   786.13036    7  5  3   693.27068 63.2   786.13121
  5  3  3   746.43479 87.5   786.78927    6  3  3   737.95868 81.7   786.79008
  5  3  3   746.60520 71.5   786.95968    7  5  3   694.09907 89.7   786.95960
  5  3  3   746.78348 88.5   787.13796    6  3  3   738.30747 87.2   787.13887
  5  3  3   746.97748 89.6   787.33196    6  3  3   738.50072 88.8   787.33212
  5  3  3   747.25020 79.9   787.60468    7  5  3   694.74318 82.1   787.60371
  5  3  3   748.20912 85.9   788.56360    7  5  3   695.70400 61.0   788.56453
  5  3  3   748.21891 89.8   788.57339    7  5  3   695.71355 81.6   788.57408
  5  3  3   748.27408 88.2   788.62856    7  5  3   695.76771 86.5   788.62824
  5  3  3   748.32852 79.6   788.68300    6  3  3   739.85063 78.6   788.68203
  5  3  3   748.34817 88.1   788.70265    6  3  3   739.87130 76.9   788.70270
  5  3  3   748.51526 78.6   788.86974    7  5  3   696.00971 75.2   788.87024
  5  3  3   749.37915 81.1   789.73363    6  3  3   740.90259 85.0   789.73399
  5  3  3   749.88737 73.7   790.24185    6  3  3   741.41135 87.2   790.24275
  5  3  3   750.28074 90.0   790.63522    7  5  3   697.77399 63.2   790.63452
  5  3  3   751.01230 89.5   791.36678    7  5  3   698.50615 65.4   791.36668
  5  3  3   751.17831 83.3   791.53279    7  5  3   698.67246 89.1   791.53299
  5  3  3   751.35811 89.8   791.71259    7  5  3   698.85231 69.7   791.71284
  5  3  3   751.91594 31.1   792.27042    6  3  3   743.43838 86.2   792.26978
  5  3  3   752.37109 77.6   792.72557    6  3  3   743.89492 45.3   792.72632
  6  3  3   734.01782 73.1   782.84922    7  5  3   689.98826 78.3   782.84879
  6  3  3   734.88539 89.4   783.71679    7  5  3   690.85590 89.9   783.71643
  6  3  3   734.90042 34.5   783.73182    7  5  3   690.87196 74.7   783.73249
  6  3  3   735.19604 86.0   784.02744    7  5  3   691.16592 78.2   784.02645
  6  3  3   735.50393 81.5   784.33533    7  5  3   691.47454 53.6   784.33507
  6  3  3   735.57075 85.2   784.40215    7  5  3   691.54066 89.9   784.40119
  6  3  3   735.88000 78.9   784.71140    7  5  3   691.85075 85.7   784.71128
  6  3  3   738.31931 87.2   787.15071    7  5  3   694.28961 88.1   787.15014
  6  3  3   738.48806 63.0   787.31946    7  5  3   694.45866 51.7   787.31919
  6  3  3   739.77687 73.0   788.60827    7  5  3   695.74721 83.1   788.60774
  6  3  3   739.83922 76.7   788.67062    7  5  3   695.81042 43.4   788.67095
  6  3  3   741.66424 76.2   790.49564    7  5  3   697.63551 49.2   790.49604
  6  3  3   742.36645 81.8   791.19785    7  5  3   698.33775 15.8   791.19828
  6  3  3   742.94287 89.8   791.77427    7  5  3   698.91416 73.2   791.77469
  6  3  3   742.98404 76.3   791.81544    7  5  3   698.95552 85.9   791.81605
  6  3  3   743.05571 90.0   791.88711    7  5  3   699.02601 89.8   791.88654
  6  3  3   743.86092 60.3   792.69232    7  5  3   699.83205 86.3   792.69258

 Searching   7  4  4 near    797.61611
 No   1:   6  3  4       48.79940  reg   743.817 -   753.817
 No   2:   7  3  4       58.73950  reg   733.877 -   743.877
 No   3:   8  5  4      104.10718  reg   688.509 -   698.509
  6  3  4   743.93501 67.7   792.73441    7  3  4   733.99467 73.0   792.73417
  6  3  4   744.28836 74.4   793.08776    7  3  4   734.34795 73.7   793.08745
  6  3  4   744.47519 13.3   793.27459    8  5  4   689.16749 87.8   793.27467
  6  3  4   744.48130 86.8   793.28070    8  5  4   689.17316 89.1   793.28034
  6  3  4   744.48510 73.3   793.28450    8  5  4   689.17689 88.8   793.28407
  6  3  4   744.50995 88.3   793.30935    8  5  4   689.20159 47.4   793.30877
  6  3  4   744.53195 77.1   793.33135    8  5  4   689.22389 77.9   793.33107
  6  3  4   744.61217 76.6   793.41157    7  3  4   734.67287 83.7   793.41237
  6  3  4   745.41561 62.2   794.21501    8  5  4   690.10760 87.8   794.21478
  6  3  4   745.43805 58.6   794.23745    8  5  4   690.13026 74.6   794.23744
  6  3  4   745.57756 88.6   794.37696    7  3  4   735.63664 88.9   794.37614
  6  3  4   745.99489 88.7   794.79429    7  3  4   736.05538 81.0   794.79488
  6  3  4   746.05858 86.4   794.85798    8  5  4   690.75160 89.0   794.85878
  6  3  4   746.26464 88.5   795.06404    8  5  4   690.95741 79.2   795.06459
  6  3  4   746.41565 24.7   795.21505    7  3  4   736.47509 46.6   795.21459
  6  3  4   746.51938 88.4   795.31878    7  3  4   736.57866 86.8   795.31816
  6  3  4   746.66561 89.2   795.46501    7  3  4   736.72629 88.8   795.46579
  6  3  4   747.36438 27.7   796.16378    7  3  4   737.42433 85.1   796.16383
  6  3  4   747.51974 86.0   796.31914    7  3  4   737.57881 89.5   796.31831
  6  3  4   748.56125 85.3   797.36065    7  3  4   738.62195 60.8   797.36145
  6  3  4   749.15062 89.1   797.95002    7  3  4   739.21147 77.7   797.95097
  6  3  4   749.44399 77.7   798.24339    7  3  4   739.50373 85.0   798.24323
  6  3  4   749.53714 75.6   798.33654    7  3  4   739.59632 52.8   798.33582
  6  3  4   749.54240 89.6   798.34180    7  3  4   739.60146 60.5   798.34096
  6  3  4   749.61304 76.2   798.41244    8  5  4   694.30517 85.2   798.41235
  6  3  4   749.73498 63.9   798.53438    7  3  4   739.79560 34.8   798.53510
  6  3  4   749.96179 78.7   798.76119    7  3  4   740.02106 79.3   798.76056
  6  3  4   750.45839 64.8   799.25779    7  3  4   740.51928 87.9   799.25878
  6  3  4   750.49614 79.2   799.29554    8  5  4   695.18912 73.1   799.29630
  6  3  4   750.70064 72.9   799.50004    7  3  4   740.76141 89.2   799.50091
  6  3  4   750.72936 87.2   799.52876    8  5  4   695.42253 80.7   799.52971
  6  3  4   750.75340 85.6   799.55280    7  3  4   740.81348 88.5   799.55298
  6  3  4   750.84233 86.9   799.64173    7  3  4   740.90259 85.0   799.64209
  6  3  4   751.01230 89.5   799.81170    8  5  4   695.70400 61.0   799.81118
  6  3  4   751.10326 85.4   799.90266    7  3  4   741.16271 83.8   799.90221
  6  3  4   751.35811 89.8   800.15751    7  3  4   741.41702 67.0   800.15652
  6  3  4   751.76997 88.1   800.56937    7  3  4   741.82970 44.8   800.56920
  6  3  4   752.51657 33.7   801.31597    8  5  4   697.20912 76.1   801.31630
  6  3  4   752.52208 89.1   801.32148    8  5  4   697.21508 66.0   801.32226
  6  3  4   752.96935 39.9   801.76875    8  5  4   697.66091 19.1   801.76809
  7  3  4   734.64165 90.0   793.38115    8  5  4   689.27426 88.9   793.38144
  7  3  4   734.71647 85.1   793.45597    8  5  4   689.34928 82.4   793.45646
  7  3  4   734.73613 89.0   793.47563    8  5  4   689.36908 86.8   793.47626
  7  3  4   736.11486 88.8   794.85436    8  5  4   690.74677 75.3   794.85395
  7  3  4   736.94366 89.1   795.68316    8  5  4   691.57612 36.5   795.68330
  7  3  4   738.48806 63.0   797.22756    8  5  4   693.12012 71.3   797.22730
  7  3  4   739.11658 83.2   797.85608    8  5  4   693.74911 90.0   797.85629
  7  3  4   739.69015 87.5   798.42965    8  5  4   694.32236 62.9   798.42954
  7  3  4   739.82568 77.6   798.56518    8  5  4   694.45866 51.7   798.56584
  7  3  4   739.84446 79.0   798.58396    8  5  4   694.47591 89.4   798.58309
  7  3  4   740.52470 60.7   799.26420    8  5  4   695.15756 80.2   799.26474
  7  3  4   740.54108 74.4   799.28058    8  5  4   695.17364 89.1   799.28082
  7  3  4   742.94287 89.8   801.68237    8  5  4   697.57499 26.3   801.68217
  7  3  4   742.98404 76.3   801.72354    8  5  4   697.61728 56.3   801.72446
  7  3  4   743.14609 89.6   801.88559    8  5  4   697.77909 80.1   801.88627

 Searching   8  4  5 near    808.88361
 No   1:   7  3  5       58.66042  reg   745.223 -   755.223
 No   2:   8  3  5       70.10844  reg   733.775 -   743.775
 No   3:   9  5  5      116.77004  reg   687.114 -   697.114
  7  3  5   745.43805 58.6   804.09847    8  3  5   733.98951 88.0   804.09795
  7  3  5   746.38598 88.6   805.04640    8  3  5   734.93774 64.2   805.04618
  7  3  5   746.63961 88.0   805.30003    9  5  5   688.53079 89.9   805.30083
  7  3  5   747.02733 74.6   805.68775    8  3  5   735.57908 84.9   805.68752
                                          9  5  5   688.91754 67.2   805.68758
  7  3  5   747.28649 87.7   805.94691    9  5  5   689.17689 88.8   805.94693
  7  3  5   747.36438 27.7   806.02480    9  5  5   689.25467 86.3   806.02471
  7  3  5   747.39022 83.4   806.05064    9  5  5   689.28086 72.3   806.05090
  7  3  5   747.81610 86.6   806.47652    9  5  5   689.70666 86.7   806.47670
  7  3  5   748.28819 87.8   806.94861    8  3  5   736.83942 70.0   806.94786
  7  3  5   748.49027 45.1   807.15069    9  5  5   690.38079 85.5   807.15083
  7  3  5   748.66982 85.1   807.33024    9  5  5   690.56042 86.0   807.33046
  7  3  5   748.77195 89.8   807.43237    8  3  5   737.32326 77.6   807.43170
  7  3  5   749.27560 83.9   807.93602    9  5  5   691.16592 78.2   807.93596
  7  3  5   749.57881 56.8   808.23923    9  5  5   691.46882 80.2   808.23886
  7  3  5   749.58400 89.2   808.24442    9  5  5   691.47454 53.6   808.24458
  7  3  5   749.76756 65.5   808.42798    8  3  5   738.31931 87.2   808.42775
  7  3  5   749.94299 23.5   808.60341    8  3  5   738.49456 20.7   808.60300
  7  3  5   749.96731 88.3   808.62773    9  5  5   691.85757 81.1   808.62761
  7  3  5   749.99859 87.3   808.65901    9  5  5   691.88801 68.2   808.65805
  7  3  5   750.73683 23.1   809.39725    9  5  5   692.62724 88.7   809.39728
  7  3  5   751.02990 89.5   809.69032    8  3  5   739.58132 78.3   809.68976
  7  3  5   751.22529 64.9   809.88571    8  3  5   739.77687 73.0   809.88531
  7  3  5   751.26284 83.8   809.92327    8  3  5   739.81574 89.0   809.92418
  7  3  5   751.26793 87.3   809.92835    8  3  5   739.82017 84.3   809.92861
  7  3  5   751.27370 15.8   809.93412    8  3  5   739.82568 77.6   809.93412
  7  3  5   751.29282 88.1   809.95324    8  3  5   739.84446 79.0   809.95290
  7  3  5   751.34249 58.3   810.00291    8  3  5   739.89380 87.4   810.00224
  7  3  5   751.50598 58.3   810.16640    9  5  5   693.39627 49.3   810.16631
  7  3  5   751.87215 20.0   810.53257    8  3  5   740.42484 83.0   810.53328
  7  3  5   752.36056 88.3   811.02098    8  3  5   740.91278 89.6   811.02122
  7  3  5   752.51657 33.7   811.17699    9  5  5   694.40699 88.9   811.17703
  7  3  5   752.52208 89.1   811.18250    8  3  5   741.07490 71.3   811.18334
  7  3  5   753.67606 84.3   812.33648    9  5  5   695.56574 84.2   812.33578
  7  3  5   753.89468 86.5   812.55510    8  3  5   742.44732 72.0   812.55576
  7  3  5   754.43573 66.5   813.09615    9  5  5   696.32542 74.4   813.09546
  7  3  5   754.48344 79.9   813.14386    9  5  5   696.37304 87.5   813.14308
  7  3  5   754.59871 85.7   813.25913    8  3  5   743.15167  2.0   813.26011
  7  3  5   754.60943 80.9   813.26985    8  3  5   743.16220 89.1   813.27064
  7  3  5   754.89934 88.6   813.55976    9  5  5   696.79014 79.2   813.56018
  8  3  5   734.14259 63.8   804.25103    9  5  5   687.48063 86.6   804.25067
  8  3  5   734.81477 87.5   804.92321    9  5  5   688.15327 69.6   804.92331
  8  3  5   735.57908 84.9   805.68752    9  5  5   688.91754 67.2   805.68758
